\STAR_ID                                  = "51 Peg"
\DATA_CATEGORY                            = "Planet Radial Velocity Curve"
\NUMBER_OF_POINTS                         = "256"
\TIME_REFERENCE_FRAME                     = "JD"
\MINIMUM_DATE                             = "2450002.665695"
\DATE_UNITS                               = "days"
\MAXIMUM_DATE                             = "2452189.707882"
\MINIMUM_VALUE                            = "-73.1"
\VALUE_UNITS                              = "m/s"
\MAXIMUM_VALUE                            = "70.4"
\REFERENCE                                = "Butler et al. 2006 (ApJ, 646, 505)"
\BIBCODE                                  = "2006ApJ...646..505B"
\TELESCOPE                                = "3.0m Shane and 0.6m CAT"
\INSTRUMENT                               = "Hamlton echelle spectrograph"
\WAVELENGTH_CALIBRATION_TECHNIQUE         = "Iodine"
\OBSERVATORY_SITE                         = "Lick Observatory, California"
\COLUMN_RADIAL_VELOCITY                   = "Radial velocity relative to barycenter"
\COLUMN_RADIAL_VELOCITY_UNCERTAINTY       = "Uncertainty in RADIAL_VELOCITY"
|    JD    | Radial_Velocity|   error|
|    double|          double|  double|
|    days  |            m/s |    m/s |
2.67365	-40.87	3.3
2.80873	-46.96	3.6
2.95979	-47.39	4.5
3.62695	-19.85	2.9
3.73265	-13.47	2.6
3.90077	-5.782	3.0
4.60753	49.41	2.2
4.78429	58.66	2.5
4.90699	63.20	3.2
5.60503	45.60	2.7
5.92544	17.88	3.3
11.6443	-45.50	4.7
11.8378	-38.98	4.9
12.6355	27.27	5.2
12.8664	32.45	6.5
13.6242	63.38	4.6
13.8295	54.78	6.2
14.6428	-1.340	5.4
14.7229	-5.477	5.5
14.8161	-10.73	4.4
14.9043	-26.29	7.3
15.6261	-50.68	4.6
15.7467	-45.78	4.6
15.8654	-57.54	5.6
16.6149	10.56	5.0
16.7592	12.91	4.6
16.8474	16.40	6.6
17.7341	63.64	4.4
17.8442	60.48	6.0
18.6161	26.29	5.2
18.7648	5.988	5.4
18.8540	-7.798	6.5
19.6218	-43.62	4.7
19.7325	-59.45	4.8
19.8473	-58.60	4.7
20.6137	-20.22	4.0
20.7401	-8.064	4.0
20.8543	5.596	5.2
21.6151	56.41	4.5
21.6620	59.26	4.3
21.7063	66.78	6.4
23.5986	-35.13	5.1
23.6448	-37.30	4.4
23.6904	-31.35	4.9
23.7258	-42.57	7.5
24.6391	-33.47	2.6
24.7261	-27.46	3.0
24.8174	-22.70	3.7
25.6226	45.34	4.6
25.7145	47.61	4.5
25.7615	56.15	4.7
26.6176	65.32	6.1
26.6508	69.63	6.1
26.7020	62.54	6.7
26.7366	50.86	7.7
27.6474	-22.66	4.3
27.6893	-22.55	6.3
27.7399	-31.82	5.2
27.7721	-31.72	6.5
28.6061	-44.12	4.7
28.6556	-33.59	4.8
28.7019	-37.10	4.8
28.7450	-39.13	4.6
28.7799	-35.32	6.6
29.6093	25.09	4.3
29.7001	35.69	4.5
29.7468	41.17	4.3
30.6004	61.33	5.6
30.6454	58.98	7.5
30.6930	63.07	6.1
30.7402	56.86	5.0
30.8334	50.98	5.3
31.6619	-2.545	5.0
31.7052	0.7633	5.7
31.7492	-4.599	5.9
32.6045	-38.53	4.3
32.6479	-48.68	4.3
32.6943	-38.84	4.7
33.6073	2.696	4.4
33.6527	11.46	4.6
33.6982	14.02	4.6
33.7331	17.55	7.5
35.5970	19.74	2.4
40.7493	-41.45	9.3
41.6045	-21.47	5.1
41.6932	-20.37	4.7
41.7388	-21.67	5.2
43.6442	49.31	4.6
44.6498	-35.66	4.4
45.6065	-38.28	4.8
46.6779	34.98	6.1
46.7230	37.54	4.9
58.5843	-24.00	4.4
68.6826	73.89	5.9
72.6462	58.57	4.5
73.6713	13.45	7.0
86.7296	-21.90	6.6
87.5888	-47.91	6.1
88.6111	-1.292	4.6
89.6847	60.15	4.6
90.6612	10.59	5.3
91.6137	-49.72	4.9
182.026	22.41	6.7
215.981	41.06	5.8
232.969	42.39	7.2
235.954	-40.99	6.0
262.991	61.66	4.2
288.933	47.51	4.5
298.923	-40.99	4.6
304.889	45.03	4.4
326.896	53.51	4.4